File: Au_cubic_XRD_spherical_angles.txt
h,k,l,Incident_Theta,Incident_Psi,Reflected_Theta,Reflected_Psi,IncidentXYZ_1,IncidentXYZ_2,IncidentXYZ_3,ReflectedXYZ_1,ReflectedXYZ_2,ReflectedXYZ_3,Intensity
0,0,2,NaN,NaN,NaN,NaN,NaN,NaN,NaN,NaN,NaN,NaN,1.59074e+07
0,0,4,NaN,NaN,NaN,NaN,NaN,NaN,NaN,NaN,NaN,NaN,1.82319e+06
0,0,6,NaN,NaN,NaN,NaN,NaN,NaN,NaN,NaN,NaN,NaN,409162
0,0,8,NaN,NaN,NaN,NaN,NaN,NaN,NaN,NaN,NaN,NaN,199002
0,2,0,-11.6884,90.1,11.6884,90.1,0.979262,-0.202589,-0.00174533,0.979262,0.202589,-0.00174533,1.59074e+07
0,2,2,-23.7929,90.1,0.109288,66.2071,0.915008,-0.403432,-0.00174533,0.915008,0.00174533,0.403432,1.15462e+07
0,4,0,-23.9023,90.1,23.9023,90.1,0.914237,-0.405177,-0.00174533,0.914237,0.405177,-0.00174533,1.82319e+06
0,4,2,-30.3712,90.1,19.4548,66.2071,0.862767,-0.505599,-0.00174533,0.862767,0.304756,0.403432,4.87948e+06
0,4,4,-53.9604,90.1,0.169968,36.0398,0.588344,-0.808609,-0.00174533,0.588344,0.00174533,0.808609,1.01573e+06
0,6,0,-37.4282,90.1,37.4282,90.1,0.794115,-0.607766,-0.00174533,0.794115,0.607766,-0.00174533,409162
0,6,2,-42.432,90.1,36.2317,66.2071,0.738078,-0.674713,-0.00174533,0.738078,0.540818,0.403432,1.35985e+06
0,6,4,-61.2494,90.1,35.1606,36.0398,0.480998,-0.87672,-0.00174533,0.480998,0.338811,0.808609,924761
0,8,0,-54.1307,90.1,54.1307,90.1,0.585938,-0.810354,-0.00174533,0.585938,0.810354,-0.00174533,199002
0,8,2,-59.3802,90.1,56.1758,66.2071,0.509338,-0.860565,-0.00174533,0.509338,0.760143,0.403432,794850
1,1,1,-12.336,90.1,4.26534,78.4137,0.97691,-0.213643,-0.00174533,0.97691,0.07286,0.200843,3.12547e+07
1,1,3,-51.6452,90.1,-38.7305,52.6977,0.620528,-0.784182,-0.00174533,0.620528,-0.497679,0.60602,1.38535e+07
1,3,1,-20.5975,90.1,17.1485,78.4137,0.936073,-0.351801,-0.00174533,0.936073,0.28884,0.200843,1.38535e+07
1,3,3,-37.3696,90.1,2.42724,52.6977,0.794735,-0.606953,-0.00174533,0.794735,0.0336878,0.60602,5.358e+06
1,5,1,-32.4135,90.1,30.4852,78.4137,0.844201,-0.536025,-0.00174533,0.844201,0.496978,0.200843,2.79268e+06
1,5,3,-43.9687,90.1,25.2043,52.6977,0.719719,-0.694264,-0.00174533,0.719719,0.338739,0.60602,3.44472e+06
1,7,1,-46.9148,90.1,45.7898,78.4137,0.683085,-0.730337,-0.00174533,0.683085,0.70218,0.200843,946089
1,7,3,-57.6126,90.1,47.6715,52.6977,0.53564,-0.844445,-0.00174533,0.53564,0.588073,0.60602,1.64933e+06
1,9,1,-68.1642,90.1,67.6859,78.4137,0.371948,-0.928252,-0.00174533,0.371948,0.906265,0.200843,994634
2,0,0,-11.6884,90.1,11.6884,90.1,0.979262,-0.202589,-0.00174533,0.979262,0.202589,-0.00174533,1.59074e+07
2,0,2,-23.7929,90.1,0.109288,66.2071,0.915008,-0.403432,-0.00174533,0.915008,0.00174533,0.403432,1.15462e+07
2,2,0,-16.6488,90.1,16.6488,90.1,0.958078,-0.286503,-0.00174533,0.958078,0.286503,-0.00174533,1.15462e+07
2,2,2,-25.3738,90.1,9.0854,66.2071,0.90353,-0.428521,-0.00174533,0.90353,0.144486,0.403432,3.99408e+06
2,2,4,-58.9862,90.1,-28.8664,36.0398,0.515243,-0.857042,-0.00174533,0.515243,-0.284035,0.808609,3.48238e+06
2,4,0,-26.9365,90.1,26.9365,90.1,0.891508,-0.453002,-0.00174533,0.891508,0.453002,-0.00174533,4.87948e+06
2,4,2,-32.876,90.1,23.3855,66.2071,0.839846,-0.542822,-0.00174533,0.839846,0.363182,0.403432,3.48238e+06
2,4,4,-54.4732,90.1,9.0122,36.0398,0.581083,-0.813842,-0.00174533,0.581083,0.0921614,0.808609,1.63665e+06
2,6,0,-39.8397,90.1,39.8397,90.1,0.767838,-0.640641,-0.00174533,0.767838,0.640641,-0.00174533,1.35985e+06
2,6,2,-44.7613,90.1,39.1044,66.2071,0.710046,-0.704153,-0.00174533,0.710046,0.577129,0.403432,1.16321e+06
2,6,4,-63.6108,90.1,40.9353,36.0398,0.444466,-0.895794,-0.00174533,0.444466,0.385489,0.808609,1.71593e+06
2,8,0,-56.6466,90.1,56.6466,90.1,0.549801,-0.835294,-0.00174533,0.549801,0.835294,-0.00174533,794850
2,8,2,-62.1296,90.1,59.2766,66.2071,0.467473,-0.884006,-0.00174533,0.467473,0.786582,0.403432,812801
3,1,1,-20.5975,90.1,17.1485,78.4137,0.936073,-0.351801,-0.00174533,0.936073,0.28884,0.200843,1.38535e+07
3,1,3,-37.3696,90.1,2.42724,52.6977,0.794735,-0.606953,-0.00174533,0.794735,0.0336878,0.60602,5.358e+06
3,3,1,-26.9505,90.1,24.5031,78.4137,0.891397,-0.453219,-0.00174533,0.891397,0.406291,0.200843,5.358e+06
3,3,3,-40.0458,90.1,15.7646,52.6977,0.765529,-0.643399,-0.00174533,0.765529,0.216112,0.60602,930892
3,5,1,-37.4245,90.1,35.8383,78.4137,0.794154,-0.607715,-0.00174533,0.794154,0.57357,0.200843,3.44472e+06
3,5,3,-48.253,90.1,33.1686,52.6977,0.665842,-0.746091,-0.00174533,0.665842,0.435194,0.60602,1.20632e+06
3,7,1,-51.6751,90.1,50.7269,78.4137,0.620119,-0.784506,-0.00174533,0.620119,0.758363,0.200843,1.64933e+06
3,7,3,-62.9303,90.1,55.1034,52.6977,0.455074,-0.890452,-0.00174533,0.455074,0.652416,0.60602,793379
3,9,1,-76.2777,90.1,75.9865,78.4137,0.237216,-0.971455,-0.00174533,0.237216,0.950469,0.200843,2.91466e+06
4,0,0,-23.9023,90.1,23.9023,90.1,0.914237,-0.405177,-0.00174533,0.914237,0.405177,-0.00174533,1.82319e+06
4,0,2,-30.3712,90.1,19.4548,66.2071,0.862767,-0.505599,-0.00174533,0.862767,0.304756,0.403432,4.87948e+06
4,0,4,-53.9604,90.1,0.169968,36.0398,0.588344,-0.808609,-0.00174533,0.588344,0.00174533,0.808609,1.01573e+06
4,2,0,-26.9365,90.1,26.9365,90.1,0.891508,-0.453002,-0.00174533,0.891508,0.453002,-0.00174533,4.87948e+06
4,2,2,-32.876,90.1,23.3855,66.2071,0.839846,-0.542822,-0.00174533,0.839846,0.363182,0.403432,3.48238e+06
4,2,4,-54.4732,90.1,9.0122,36.0398,0.581083,-0.813842,-0.00174533,0.581083,0.0921614,0.808609,1.63665e+06
4,4,0,-34.9602,90.1,34.9602,90.1,0.819549,-0.573007,-0.00174533,0.819549,0.573007,-0.00174533,1.01573e+06
4,4,2,-40.092,90.1,33.2728,66.2071,0.76501,-0.644016,-0.00174533,0.76501,0.501998,0.403432,1.63665e+06
4,4,4,-59.1237,90.1,29.2789,36.0398,0.513185,-0.858276,-0.00174533,0.513185,0.287738,0.808609,341070
4,6,0,-46.9237,90.1,46.9237,90.1,0.682971,-0.730443,-0.00174533,0.682971,0.730443,-0.00174533,924761
4,6,2,-51.827,90.1,47.5115,66.2071,0.618037,-0.786147,-0.00174533,0.618037,0.67474,0.403432,1.71593e+06
4,6,4,-72.5977,90.1,59.4469,36.0398,0.299078,-0.954227,-0.00174533,0.299078,0.50666,0.808609,794850
4,8,0,-64.959,90.1,64.959,90.1,0.423266,-0.906004,-0.00174533,0.423266,0.906004,-0.00174533,918844
4,8,2,-71.9738,90.1,70.233,66.2071,0.309452,-0.950913,-0.00174533,0.309452,0.861094,0.403432,2.05355e+06
5,1,1,-32.4135,90.1,30.4852,78.4137,0.844201,-0.536025,-0.00174533,0.844201,0.496978,0.200843,2.79268e+06
5,1,3,-43.9687,90.1,25.2043,52.6977,0.719719,-0.694264,-0.00174533,0.719719,0.338739,0.60602,3.44472e+06
5,3,1,-37.4245,90.1,35.8383,78.4137,0.794154,-0.607715,-0.00174533,0.794154,0.57357,0.200843,3.44472e+06
5,3,3,-48.253,90.1,33.1686,52.6977,0.665842,-0.746091,-0.00174533,0.665842,0.435194,0.60602,1.20632e+06
5,5,1,-46.9148,90.1,45.7898,78.4137,0.683085,-0.730337,-0.00174533,0.683085,0.70218,0.200843,946089
5,5,3,-57.6126,90.1,47.6715,52.6977,0.53564,-0.844445,-0.00174533,0.53564,0.588073,0.60602,824666
5,7,1,-61.9991,90.1,61.3635,78.4137,0.469485,-0.882939,-0.00174533,0.469485,0.859794,0.200843,1.68009e+06
5,7,3,-77.6171,90.1,74.3602,52.6977,0.214444,-0.976735,-0.00174533,0.214444,0.765998,0.60602,1.98927e+06
6,0,0,-37.4282,90.1,37.4282,90.1,0.794115,-0.607766,-0.00174533,0.794115,0.607766,-0.00174533,409162
6,0,2,-42.432,90.1,36.2317,66.2071,0.738078,-0.674713,-0.00174533,0.738078,0.540818,0.403432,1.35985e+06
6,0,4,-61.2494,90.1,35.1606,36.0398,0.480998,-0.87672,-0.00174533,0.480998,0.338811,0.808609,924761
6,2,0,-39.8397,90.1,39.8397,90.1,0.767838,-0.640641,-0.00174533,0.767838,0.640641,-0.00174533,1.35985e+06
6,2,2,-44.7613,90.1,39.1044,66.2071,0.710046,-0.704153,-0.00174533,0.710046,0.577129,0.403432,1.16321e+06
6,2,4,-63.6108,90.1,40.9353,36.0398,0.444466,-0.895794,-0.00174533,0.444466,0.385489,0.808609,1.71593e+06
6,4,0,-46.9237,90.1,46.9237,90.1,0.682971,-0.730443,-0.00174533,0.682971,0.730443,-0.00174533,924761
6,4,2,-51.827,90.1,47.5115,66.2071,0.618037,-0.786147,-0.00174533,0.618037,0.67474,0.403432,1.71593e+06
6,4,4,-72.5977,90.1,59.4469,36.0398,0.299078,-0.954227,-0.00174533,0.299078,0.50666,0.808609,794850
6,6,0,-59.2618,90.1,59.2618,90.1,0.511115,-0.85951,-0.00174533,0.511115,0.85951,-0.00174533,406401
6,6,2,-65.0738,90.1,62.5744,66.2071,0.421451,-0.90685,-0.00174533,0.421451,0.812171,0.403432,852119
7,1,1,-46.9148,90.1,45.7898,78.4137,0.683085,-0.730337,-0.00174533,0.683085,0.70218,0.200843,946089
7,1,3,-57.6126,90.1,47.6715,52.6977,0.53564,-0.844445,-0.00174533,0.53564,0.588073,0.60602,1.64933e+06
7,3,1,-51.6751,90.1,50.7269,78.4137,0.620119,-0.784506,-0.00174533,0.620119,0.758363,0.200843,1.64933e+06
7,3,3,-62.9303,90.1,55.1034,52.6977,0.455074,-0.890452,-0.00174533,0.455074,0.652416,0.60602,793379
7,5,1,-61.9991,90.1,61.3635,78.4137,0.469485,-0.882939,-0.00174533,0.469485,0.859794,0.200843,1.68009e+06
7,5,3,-77.6171,90.1,74.3602,52.6977,0.214444,-0.976735,-0.00174533,0.214444,0.765998,0.60602,1.98927e+06
8,0,0,-54.1307,90.1,54.1307,90.1,0.585938,-0.810354,-0.00174533,0.585938,0.810354,-0.00174533,199002
8,0,2,-59.3802,90.1,56.1758,66.2071,0.509338,-0.860565,-0.00174533,0.509338,0.760143,0.403432,794850
8,2,0,-56.6466,90.1,56.6466,90.1,0.549801,-0.835294,-0.00174533,0.549801,0.835294,-0.00174533,794850
8,2,2,-62.1296,90.1,59.2766,66.2071,0.467473,-0.884006,-0.00174533,0.467473,0.786582,0.403432,812801
8,4,0,-64.959,90.1,64.959,90.1,0.423266,-0.906004,-0.00174533,0.423266,0.906004,-0.00174533,918844
8,4,2,-71.9738,90.1,70.233,66.2071,0.309452,-0.950913,-0.00174533,0.309452,0.861094,0.403432,2.05355e+06
9,1,1,-68.1642,90.1,67.6859,78.4137,0.371948,-0.928252,-0.00174533,0.371948,0.906265,0.200843,994634
9,3,1,-76.2777,90.1,75.9865,78.4137,0.237216,-0.971455,-0.00174533,0.237216,0.950469,0.200843,2.91466e+06