File: NaCl_cubic_XRD_spherical_angles.txt
h,k,l,Incident_Theta,Incident_Psi,Reflected_Theta,Reflected_Psi,IncidentX,IncidentY,IncidentZ,ReflectedX,ReflectedY,ReflectedZ,thetaDifferencex,thetaDifferencey,thetaDifferencez,DetectorPointX,DetectorPointY
2,0,2,-21.0632,90.4,0.428639,68.9373,0.933162,-0.359389,-0.00698126,0.933162,0.00698126,0.359389,0,0.366371,0.366371,19.7,20.7
2,0,4,-64.4203,90.4,-51.1269,43.4679,0.431755,-0.901964,-0.00698126,0.431755,-0.535593,0.72576,0,0.366371,0.732741,11.8,54.2
4,0,2,-27.0317,90.4,17.349,68.9373,0.890733,-0.454473,-0.00698126,0.890733,0.278269,0.359389,0,0.732741,0.366371,48.9,26.9
1,1,1,-10.9158,90.4,4.06052,79.8513,0.981883,-0.189361,-0.00698126,0.981883,0.0697023,0.176204,1.11022e-16,0.259063,0.183185,13.4,9.3
1,1,3,-44.2373,90.4,-31.4719,57.1409,0.71644,-0.697614,-0.00698126,0.71644,-0.438551,0.542575,0,0.259063,0.549556,11.3,33.1
3,1,1,-18.4457,90.4,15.4896,79.8513,0.948601,-0.316398,-0.00698126,0.948601,0.262885,0.176204,0,0.579283,0.183185,33.6,10.8
3,1,3,-32.9365,90.4,2.42808,57.1409,0.839253,-0.543696,-0.00698126,0.839253,0.0355871,0.542575,0,0.579283,0.549556,35.5,39.6
2,2,2,-22.561,90.4,8.2849,68.9373,0.923449,-0.383658,-0.00698126,0.923449,0.134468,0.359389,0,0.518126,0.366371,29.9,22.4
2,2,4,-50.1152,90.4,-21.2367,43.4679,0.641231,-0.767316,-0.00698126,0.641231,-0.24919,0.72576,0,0.518126,0.732741,27.6,60.2